BEGIN IONS
TITLE=OT_150310_10.3656.3656.3 (intensity=5397926.0623)
PEPMASS=280.000176452416 123.123456
CHARGE=3+
SCANS=31
RTINSECONDS=1129.129
124.99898 439.21
129.1017 2506.91
131.11746 8212.41
136.07524 896.8
137.81981 376.69
138.62671 388.56
139.29602 458.05
140.10649 577.19
140.14273 415.22
140.98701 420.7
147.11209 477.06
149.03766 450.38
155.10603 1684.47
155.83406 367.31
159.0997 2265.55
159.10326 288.94
159.13737 2459.49
159.43091 399.39
160.10744 498.02
160.97592 1820.08
166.6422 434.59
168.10103 786.42
169.13316 1018.98
170.10446 533.29
170.14066 1067.79
172.13133 7239.61
173.53252 1514.35
175.11842 9047.99
181.0961 798.12
185.13924 4389.5
189.08594 481.26
192.64381 429.24
197.12762 870.38
198.17216 4052.76
199.17979 96273.41
200.16225 2837.89
200.18338 10083.19
204.31642 391.84
209.09125 976.87
214.1543 11115.23
215.12915 239.64
215.13832 16073.41
215.1568 670.6
216.12088 32819.1
216.14059 1428.85
217.12419 2816.63
222.96811 3992.4
225.04111 655.12
226.11752 849.96
226.16664 34306.45
227.17459 40776.42
228.17851 5299.68
229.12842 11427.02
229.21591 609.45
230.13292 643.56
241.66971 822.6
243.13277 12204.39
243.18121 792.5
243.20531 451.02
244.12706 4970.1
244.15138 6510.04
244.20096 2501.04
250.17006 26263.65
250.67148 7408.3
257.24655 959.85
270.21597 1914.56
270.64676 743.65
271.17572 5579.71
271.19852 1715.81
272.18268 860.36
277.17499 9492.78
277.67679 2781.07
280.21326 1076.93
284.17117 846.51
284.20718 859.3
284.95959 5465.4
285.12958 3419.93
285.16559 1046.26
285.18405 523.09
285.22006 3486.96
285.2775 2643.48
286.18649 2856.66
287.19403 9619.91
288.20071 3849.52
289.20447 539.09
297.14331 707.14
300.1666 513.01
303.21255 37701.8
304.21613 4107.18
305.68573 26479.02
306.18729 7500.93
306.68195 475.29
312.17349 467.35
314.20703 588.7
314.69138 4669.5
314.7023 184.16
315.18933 5998.84
320.18082 510.89
325.22205 1603.81
328.19662 3938.55
328.20343 1539.41
328.22168 3693.25
329.22708 626.39
341.69586 4744.89
342.19812 939.56
342.70294 745.21
343.19662 1917.69
343.21954 3359.37
347.18707 766.58
353.22217 922.38
353.72427 799.72
355.20859 1868.42
355.7233 3487.21
356.21643 25764.03
357.21948 5649.34
362.22754 1812.49
364.23712 4076.52
364.73993 826.58
371.23645 27234.02
371.73431 4414.77
372.2403 9691.94
372.74231 3280.73
373.24316 731.96
383.7554 3007.64
385.25488 2402.42
386.26199 17713.12
387.26721 5151.93
389.25763 2008.15
390.25885 4567.11
390.70212 977.75
390.73041 1852.13
390.76102 1854.46
391.23492 671.84
391.73358 714.16
392.26801 2970.59
392.77011 2008.72
397.26706 17372.5
397.76691 9964.25
398.23816 163823.31
398.73984 67693.72
398.77127 9234.53
399.24124 14273.21
399.2731 3437.16
400.24677 2121.98
402.2803 7262.39
403.28323 804.83
406.76462 29089.22
407.21362 469.64
407.26636 15106.03
407.76578 3599.18
408.22205 591.25
410.754 468.79
412.00772 491.67
412.254 569.19
418.77002 921.19
419.76563 15342.78
420.26709 8401.58
420.76846 3710.47
421.26733 864
425.27554 2429.18
427.77475 228324.34
428.21878 5020.64
428.27646 147189.92
428.72638 6099.76
428.77823 46123.26
429.22354 1053.67
429.28241 3253.64
439.30008 4349.32
440.30392 554.91
453.27417 903.32
453.32913 751.1
456.29132 5433.45
457.29959 2918.69
458.30762 814.68
470.23715 3926.67
470.29523 24502.53
471.29822 7129.26
472.289 1850.47
482.30484 1657.56
483.31174 1038.64
499.33307 60965.97
500.33658 16759.28
501.34219 4114.44
511.3219 2684.57
516.29877 602.33
525.35046 8359.53
526.35547 5088
527.32648 2245.4
527.36493 1470.67
528.33234 1754.66
541.28265 4204.42
542.28802 860.13
550.33234 1663.57
552.33575 4392.53
553.34308 27313.79
554.34552 7339.53
555.34436 815.18
567.36017 558.07
568.34967 4227.02
569.36377 110473.2
570.36768 38031.68
571.28473 1680.17
571.3689 4844.93
584.37415 1729.27
585.25903 2066.39
586.35242 3531.31
587.35413 830
596.33929 5923.99
597.34088 902.21
611.37085 1925.19
612.35687 195577.48
613.36005 68608.7
614.36389 13859.39
615.37122 981.56
628.37537 13737.79
629.37939 4578.98
630.39087 42479.84
631.39435 14467.57
632.39386 2052.02
637.42365 539.37
638.38312 926.94
640.38348 722.23
653.44543 3231.34
654.45117 799.61
680.43457 3076.64
680.46472 296.44
681.43555 2672.74
682.44476 724.96
683.42041 901.41
696.45087 9138.18
697.45813 256336.95
698.34503 4177.53
698.46143 105136.95
699.46417 18624.77
709.42395 1615.29
723.47253 1696.09
724.48029 916.97
725.44055 17967.74
726.44598 9517.27
727.44946 3382.46
740.4223 526.23
741.45898 4788.97
742.42944 351.79
742.46619 3489.53
743.47046 2222.74
752.51251 1775.31
753.44843 811.61
754.45667 3386.66
755.45966 2111.11
767.45221 4944.49
768.46387 2682.13
769.4718 886.48
777.5069 1708.28
778.51514 1922.77
779.453 2563.98
780.46735 902.25
781.47931 7597.9
782.47839 3815.18
783.47443 2723.09
784.53998 2053.43
785.53748 955.42
793.52222 692.86
795.47156 3896.49
796.50146 42050.76
797.50342 18324.71
798.50739 3005.18
799.49091 784.34
800.49078 787.87
810.55231 2116.41
811.54755 744.05
812.5213 10844.09
813.52783 18830.46
814.53082 8561.47
815.53271 1600.52
821.52173 2184.24
822.50568 17062.87
823.50818 9273.69
824.50958 949.67
827.55615 2102.56
828.56274 2290.9
838.5246 69473.59
839.53119 162952.53
840.53406 71520.16
841.53741 14564.36
854.54205 17836.92
855.54938 58877.1
856.55682 113974.92
857.4494 2652.06
857.5603 52095.45
858.56433 11086.04
END IONS
BEGIN IONS
TITLE=OT_150310_10.3496.3496.3 (intensity=5397926.0623)
PEPMASS=292.084176452416
CHARGE=3+
SCANS=31
RTINSECONDS=1129.129
129.10181 18131.94
129.11304 1492.03
131.11751 14145.97
132.12144 785.56
139.98145 711.86
140.10703 1059.05
140.14313 1449.18
142.10939 704.75
158.09155 941.22
158.11569 1063.01
159.09978 6860.07
159.10342 413.14
160.10751 6204.39
168.10141 1602.01
169.13307 5543.29
170.14116 2023.6
171.14856 2014.55
172.13144 25238.5
173.13402 1164.76
173.53267 2601.65
175.11847 54931.66
176.12216 1521.83
181.09654 9261.39
184.05995 978.71
185.13918 10679.85
197.12791 5775.13
198.17223 8208.84
199.17989 209678.86
200.16306 7438.29
200.18327 26900.76
201.1862 836.69
201.64413 3998.14
202.14537 930.18
209.09148 16324.22
214.1544 20347.94
215.13837 47088.02
215.15794 1777.11
216.121 93667.91
216.14127 4160.1
217.12523 6747.93
226.11792 1900.8
226.16681 63345.52
227.17471 91214.71
228.17972 11293.16
229.12883 29249.91
230.13356 1208.54
240.18095 1232.23
242.19736 1121.79
243.1329 56626.12
244.12646 10171.49
244.15121 16976.57
244.20126 1129.21
245.15591 1226.38
246.1443 988.23
249.01717 1066.69
250.17021 82702.06
250.67143 20861.82
251.17218 2158.87
256.14218 1109.62
259.17105 939.34
270.21667 3782.57
271.17532 20592.62
271.1998 3323.51
272.17957 4162.77
275.67117 913.14
277.17542 20559.25
277.67667 4838.89
280.16434 1410.82
280.21341 6543.42
284.20648 2077.67
284.67538 1317.31
285.20334 3964.59
286.18668 12963.21
287.19388 33075.24
288.20215 14186.15
289.20526 1724.97
296.68091 3957.66
297.14209 1161.26
297.17221 1581.94
299.23111 1019.72
300.19073 1349.73
302.20444 6910.61
303.2128 190095.66
304.21594 26681
305.21707 1376.04
305.68594 409876.97
306.18735 119891.83
306.68863 15675.62
314.18069 1212.5
314.69125 20193.5
314.70474 360.63
315.18927 24270.63
325.22241 7929.88
328.19669 14043.6
328.22174 5251.52
329.19833 1714.6
340.68793 1995.44
341.69778 7752.11
342.1987 4258.32
342.24759 1431.43
342.27255 1190.73
342.70288 1477.34
343.21924 4508.03
349.23178 1317.3
353.22263 25715.31
353.72498 10277.49
354.22604 1293.04
355.2084 5765.91
355.72354 5046.11
356.21628 56931.85
357.22055 11041.79
358.22308 2054.73
359.22955 1305.99
362.22781 5826.22
362.24103 182.12
364.23782 5356.48
364.73917 1693.88
370.24295 4249.72
371.23447 176392.5
371.7345 55859.86
372.23975 31412.06
372.74332 6071.28
373.24301 2190.4
376.22412 1616.53
383.75455 6071.5
384.25641 1487.5
385.25586 6673.47
386.26224 57434.88
387.26596 18645.6
388.27133 1538.73
389.25641 2100.04
389.76004 1624.73
390.25909 7746.39
390.7337 1655.57
390.75836 1837.1
391.23401 1952.96
391.73569 2084.87
392.23709 1350.94
392.26663 6216.89
392.76962 2028.54
396.22861 989.8
397.26733 34258.1
397.76755 23672.51
398.23843 328307.63
398.73996 181410.55
398.77103 20038.46
399.24161 53257.64
399.27295 9024.25
399.77505 3373.6
400.24664 5310.62
400.74722 3936.87
402.2807 105085.09
403.23282 3493.2
403.28415 21382.51
404.28696 1368.08
405.78033 1467.83
406.76489 58785.95
407.26617 34832.15
407.76709 8089.5
411.25888 1278.49
412.2677 6134.45
418.24399 1292.34
419.27396 1685.26
419.76556 30448.15
420.26746 25280.19
420.7691 8552.3
421.27023 1537.54
425.27527 5205.44
426.27673 1638.12
427.27951 1409.44
427.77499 468277.97
428.27676 355746.72
428.7785 143549
429.28082 14771.22
436.25363 2091.08
438.3175 1542.1
439.30099 8031.57
440.30295 1292.08
452.27325 21464.56
453.28015 75636.84
454.26666 25313.12
454.33441 1603.55
455.26709 4310.45
456.29077 10501.78
457.29611 7859.65
468.29214 3792.91
470.29553 61367.09
471.29254 53826.3
472.30099 9649.64
481.32187 11292.32
482.30612 28868.16
483.3129 11141.1
484.31699 1144.78
497.32022 1545.83
499.33331 3907481.5
500.3356 1008772.88
501.33832 110031.92
502.34872 1188.49
510.27802 1443.29
511.32385 4421.98
512.32666 1666.62
523.27631 1472
524.33777 1506.75
525.34998 26364.93
526.3551 15137.44
527.32611 6515.14
528.28827 3474.06
528.33221 4408.52
529.34027 1215.64
531.32843 10433.23
532.33167 2012.68
533.3349 6001.35
534.32922 1249.89
540.29541 1934.89
540.3642 1937.64
541.28302 19184.52
542.28589 6689.78
548.35449 4059.39
549.34412 4282.2
550.34167 1405.42
551.34033 4253.34
552.33075 21841.97
553.34442 89941.71
554.3468 28316.41
555.34814 7922.18
567.35754 4115.92
568.34698 22300.29
569.3642 256289.86
570.36896 100424.45
571.37347 15239.71
583.36682 27144.85
584.37402 52459.64
585.37585 17354.17
586.35449 16220.2
587.35565 4004.31
593.34149 3812.45
594.34662 72896.18
595.34833 22440.88
596.33978 17061.64
597.34155 5231.11
610.36572 85927.01
611.3728 232729.8
612.3573 607118.88
613.36023 244457.3
614.36371 47194.51
615.37292 1700.31
628.37592 203139.45
629.37976 90791.8
630.38983 95521.8
631.39441 33933.77
632.39325 8341.36
638.35852 7231.69
639.36438 3786.27
641.37164 5400.33
642.37427 4276.95
653.44922 8830.86
654.45288 3268.1
664.42499 1647.13
665.41693 1346.55
668.39435 4308.38
670.44904 1358.29
680.43665 10987.3
681.43689 7981.52
682.44434 3985.96
683.41974 8864.82
684.42084 4719.14
689.42047 3681.74
690.42377 1371.41
696.45227 24852.54
697.45856 597910.88
698.46179 280988.03
699.46558 68916.58
700.44 2059.21
705.43445 1320
706.44598 21476.9
707.44739 7954.9
709.42053 3599.51
710.43048 3664.14
723.46619 1533.66
724.47668 4314.9
725.44037 133061.92
726.4444 59206.73
727.448 12541.27
741.46039 54153.77
742.46649 119836.01
743.4693 39867.63
744.46954 10198.58
752.44629 1581.09
752.49585 798.32
752.51514 1682.07
753.52484 2045.45
754.45679 8643.24
755.45898 4369.37
756.46204 1517.05
767.44727 7654.16
768.4599 4008.09
769.46167 2109.05
777.50763 1711.15
778.51202 5712.59
779.44971 7064.88
780.46106 5329.38
781.47589 15261.78
782.48145 9669.86
783.47626 7715.42
784.4679 2186.17
785.54498 3461.17
793.52332 1992.3
794.52258 3347.05
795.46887 7126.9
796.50122 98409.51
797.50439 57395.84
798.50977 18461.8
799.49066 1620.13
800.49304 5734.86
801.49249 1578.2
810.55121 5914.39
811.54071 5263.79
812.52118 25940.23
813.52667 49441
814.53088 24110.91
815.53351 4177.39
821.52087 5330.08
822.50616 44234.3
823.51178 22974.91
824.51874 6616.54
827.55145 4486.77
828.56305 3985.87
838.52496 153599.2
839.53143 376032.47
840.5343 202919.11
841.53796 50240.25
854.54388 39890.14
855.55011 143785.84
856.55707 271606.66
857.56146 146152.97
858.56305 38837.55
END IONS
BEGIN IONS
TITLE=OT_150310_10.3656.3656.3 (intensity=5397926.0623)
PEPMASS=280.000176452416 123.123456
CHARGE=3+
SCANS=31
RTINSECONDS=1129.129
124.99898 439.21
129.1017 2506.91
131.11746 8212.41
136.07524 896.8
137.81981 376.69
138.62671 388.56
139.29602 458.05
140.10649 577.19
140.14273 415.22
140.98701 420.7
147.11209 477.06
149.03766 450.38
155.10603 1684.47
155.83406 367.31
159.0997 2265.55
159.10326 288.94
159.13737 2459.49
159.43091 399.39
160.10744 498.02
160.97592 1820.08
166.6422 434.59
168.10103 786.42
169.13316 1018.98
170.10446 533.29
170.14066 1067.79
172.13133 7239.61
173.53252 1514.35
175.11842 9047.99
181.0961 798.12
185.13924 4389.5
189.08594 481.26
192.64381 429.24
197.12762 870.38
198.17216 4052.76
199.17979 96273.41
200.16225 2837.89
200.18338 10083.19
204.31642 391.84
209.09125 976.87
214.1543 11115.23
215.12915 239.64
215.13832 16073.41
215.1568 670.6
216.12088 32819.1
216.14059 1428.85
217.12419 2816.63
222.96811 3992.4
225.04111 655.12
226.11752 849.96
226.16664 34306.45
227.17459 40776.42
228.17851 5299.68
229.12842 11427.02
229.21591 609.45
230.13292 643.56
241.66971 822.6
243.13277 12204.39
243.18121 792.5
243.20531 451.02
244.12706 4970.1
244.15138 6510.04
244.20096 2501.04
250.17006 26263.65
250.67148 7408.3
257.24655 959.85
270.21597 1914.56
270.64676 743.65
271.17572 5579.71
271.19852 1715.81
272.18268 860.36
277.17499 9492.78
277.67679 2781.07
280.21326 1076.93
284.17117 846.51
284.20718 859.3
284.95959 5465.4
285.12958 3419.93
285.16559 1046.26
285.18405 523.09
285.22006 3486.96
285.2775 2643.48
286.18649 2856.66
287.19403 9619.91
288.20071 3849.52
289.20447 539.09
297.14331 707.14
300.1666 513.01
303.21255 37701.8
304.21613 4107.18
305.68573 26479.02
306.18729 7500.93
306.68195 475.29
312.17349 467.35
314.20703 588.7
314.69138 4669.5
314.7023 184.16
315.18933 5998.84
320.18082 510.89
325.22205 1603.81
328.19662 3938.55
328.20343 1539.41
328.22168 3693.25
329.22708 626.39
341.69586 4744.89
342.19812 939.56
342.70294 745.21
343.19662 1917.69
343.21954 3359.37
347.18707 766.58
353.22217 922.38
353.72427 799.72
355.20859 1868.42
355.7233 3487.21
356.21643 25764.03
357.21948 5649.34
362.22754 1812.49
364.23712 4076.52
364.73993 826.58
371.23645 27234.02
371.73431 4414.77
372.2403 9691.94
372.74231 3280.73
373.24316 731.96
383.7554 3007.64
385.25488 2402.42
386.26199 17713.12
387.26721 5151.93
389.25763 2008.15
390.25885 4567.11
390.70212 977.75
390.73041 1852.13
390.76102 1854.46
391.23492 671.84
391.73358 714.16
392.26801 2970.59
392.77011 2008.72
397.26706 17372.5
397.76691 9964.25
398.23816 163823.31
398.73984 67693.72
398.77127 9234.53
399.24124 14273.21
399.2731 3437.16
400.24677 2121.98
402.2803 7262.39
403.28323 804.83
406.76462 29089.22
407.21362 469.64
407.26636 15106.03
407.76578 3599.18
408.22205 591.25
410.754 468.79
412.00772 491.67
412.254 569.19
418.77002 921.19
419.76563 15342.78
420.26709 8401.58
420.76846 3710.47
421.26733 864
425.27554 2429.18
427.77475 228324.34
428.21878 5020.64
428.27646 147189.92
428.72638 6099.76
428.77823 46123.26
429.22354 1053.67
429.28241 3253.64
439.30008 4349.32
440.30392 554.91
453.27417 903.32
453.32913 751.1
456.29132 5433.45
457.29959 2918.69
458.30762 814.68
470.23715 3926.67
470.29523 24502.53
471.29822 7129.26
472.289 1850.47
482.30484 1657.56
483.31174 1038.64
499.33307 60965.97
500.33658 16759.28
501.34219 4114.44
511.3219 2684.57
516.29877 602.33
525.35046 8359.53
526.35547 5088
527.32648 2245.4
527.36493 1470.67
528.33234 1754.66
541.28265 4204.42
542.28802 860.13
550.33234 1663.57
552.33575 4392.53
553.34308 27313.79
554.34552 7339.53
555.34436 815.18
567.36017 558.07
568.34967 4227.02
569.36377 110473.2
570.36768 38031.68
571.28473 1680.17
571.3689 4844.93
584.37415 1729.27
585.25903 2066.39
586.35242 3531.31
587.35413 830
596.33929 5923.99
597.34088 902.21
611.37085 1925.19
612.35687 195577.48
613.36005 68608.7
614.36389 13859.39
615.37122 981.56
628.37537 13737.79
629.37939 4578.98
630.39087 42479.84
631.39435 14467.57
632.39386 2052.02
637.42365 539.37
638.38312 926.94
640.38348 722.23
653.44543 3231.34
654.45117 799.61
680.43457 3076.64
680.46472 296.44
681.43555 2672.74
682.44476 724.96
683.42041 901.41
696.45087 9138.18
697.45813 256336.95
698.34503 4177.53
698.46143 105136.95
699.46417 18624.77
709.42395 1615.29
723.47253 1696.09
724.48029 916.97
725.44055 17967.74
726.44598 9517.27
727.44946 3382.46
740.4223 526.23
741.45898 4788.97
742.42944 351.79
742.46619 3489.53
743.47046 2222.74
752.51251 1775.31
753.44843 811.61
754.45667 3386.66
755.45966 2111.11
767.45221 4944.49
768.46387 2682.13
769.4718 886.48
777.5069 1708.28
778.51514 1922.77
779.453 2563.98
780.46735 902.25
781.47931 7597.9
782.47839 3815.18
783.47443 2723.09
784.53998 2053.43
785.53748 955.42
793.52222 692.86
795.47156 3896.49
796.50146 42050.76
797.50342 18324.71
798.50739 3005.18
799.49091 784.34
800.49078 787.87
810.55231 2116.41
811.54755 744.05
812.5213 10844.09
813.52783 18830.46
814.53082 8561.47
815.53271 1600.52
821.52173 2184.24
822.50568 17062.87
823.50818 9273.69
824.50958 949.67
827.55615 2102.56
828.56274 2290.9
838.5246 69473.59
839.53119 162952.53
840.53406 71520.16
841.53741 14564.36
854.54205 17836.92
855.54938 58877.1
856.55682 113974.92
857.4494 2652.06
857.5603 52095.45
858.56433 11086.04
END IONS
BEGIN IONS
TITLE=OT_150310_10.3493.3493.3 (intensity=5397926.0623)
PEPMASS=292.084176452416
CHARGE=3+
SCANS=31
RTINSECONDS=1129.129
129.10181 18131.94
129.11304 1492.03
131.11751 14145.97
132.12144 785.56
139.98145 711.86
140.10703 1059.05
140.14313 1449.18
142.10939 704.75
158.09155 941.22
158.11569 1063.01
159.09978 6860.07
159.10342 413.14
160.10751 6204.39
168.10141 1602.01
169.13307 5543.29
170.14116 2023.6
171.14856 2014.55
172.13144 25238.5
173.13402 1164.76
173.53267 2601.65
175.11847 54931.66
176.12216 1521.83
181.09654 9261.39
184.05995 978.71
185.13918 10679.85
197.12791 5775.13
198.17223 8208.84
199.17989 209678.86
200.16306 7438.29
200.18327 26900.76
201.1862 836.69
201.64413 3998.14
202.14537 930.18
209.09148 16324.22
214.1544 20347.94
215.13837 47088.02
215.15794 1777.11
216.121 93667.91
216.14127 4160.1
217.12523 6747.93
226.11792 1900.8
226.16681 63345.52
227.17471 91214.71
228.17972 11293.16
229.12883 29249.91
230.13356 1208.54
240.18095 1232.23
242.19736 1121.79
243.1329 56626.12
244.12646 10171.49
244.15121 16976.57
244.20126 1129.21
245.15591 1226.38
246.1443 988.23
249.01717 1066.69
250.17021 82702.06
250.67143 20861.82
251.17218 2158.87
256.14218 1109.62
259.17105 939.34
270.21667 3782.57
271.17532 20592.62
271.1998 3323.51
272.17957 4162.77
275.67117 913.14
277.17542 20559.25
277.67667 4838.89
280.16434 1410.82
280.21341 6543.42
284.20648 2077.67
284.67538 1317.31
285.20334 3964.59
286.18668 12963.21
287.19388 33075.24
288.20215 14186.15
289.20526 1724.97
296.68091 3957.66
297.14209 1161.26
297.17221 1581.94
299.23111 1019.72
300.19073 1349.73
302.20444 6910.61
303.2128 190095.66
304.21594 26681
305.21707 1376.04
305.68594 409876.97
306.18735 119891.83
306.68863 15675.62
314.18069 1212.5
314.69125 20193.5
314.70474 360.63
315.18927 24270.63
325.22241 7929.88
328.19669 14043.6
328.22174 5251.52
329.19833 1714.6
340.68793 1995.44
341.69778 7752.11
342.1987 4258.32
342.24759 1431.43
342.27255 1190.73
342.70288 1477.34
343.21924 4508.03
349.23178 1317.3
353.22263 25715.31
353.72498 10277.49
354.22604 1293.04
355.2084 5765.91
355.72354 5046.11
356.21628 56931.85
357.22055 11041.79
358.22308 2054.73
359.22955 1305.99
362.22781 5826.22
362.24103 182.12
364.23782 5356.48
364.73917 1693.88
370.24295 4249.72
371.23447 176392.5
371.7345 55859.86
372.23975 31412.06
372.74332 6071.28
373.24301 2190.4
376.22412 1616.53
383.75455 6071.5
384.25641 1487.5
385.25586 6673.47
386.26224 57434.88
387.26596 18645.6
388.27133 1538.73
389.25641 2100.04
389.76004 1624.73
390.25909 7746.39
390.7337 1655.57
390.75836 1837.1
391.23401 1952.96
391.73569 2084.87
392.23709 1350.94
392.26663 6216.89
392.76962 2028.54
396.22861 989.8
397.26733 34258.1
397.76755 23672.51
398.23843 328307.63
398.73996 181410.55
398.77103 20038.46
399.24161 53257.64
399.27295 9024.25
399.77505 3373.6
400.24664 5310.62
400.74722 3936.87
402.2807 105085.09
403.23282 3493.2
403.28415 21382.51
404.28696 1368.08
405.78033 1467.83
406.76489 58785.95
407.26617 34832.15
407.76709 8089.5
411.25888 1278.49
412.2677 6134.45
418.24399 1292.34
419.27396 1685.26
419.76556 30448.15
420.26746 25280.19
420.7691 8552.3
421.27023 1537.54
425.27527 5205.44
426.27673 1638.12
427.27951 1409.44
427.77499 468277.97
428.27676 355746.72
428.7785 143549
429.28082 14771.22
436.25363 2091.08
438.3175 1542.1
439.30099 8031.57
440.30295 1292.08
452.27325 21464.56
453.28015 75636.84
454.26666 25313.12
454.33441 1603.55
455.26709 4310.45
456.29077 10501.78
457.29611 7859.65
468.29214 3792.91
470.29553 61367.09
471.29254 53826.3
472.30099 9649.64
481.32187 11292.32
482.30612 28868.16
483.3129 11141.1
484.31699 1144.78
497.32022 1545.83
499.33331 3907481.5
500.3356 1008772.88
501.33832 110031.92
502.34872 1188.49
510.27802 1443.29
511.32385 4421.98
512.32666 1666.62
523.27631 1472
524.33777 1506.75
525.34998 26364.93
526.3551 15137.44
527.32611 6515.14
528.28827 3474.06
528.33221 4408.52
529.34027 1215.64
531.32843 10433.23
532.33167 2012.68
533.3349 6001.35
534.32922 1249.89
540.29541 1934.89
540.3642 1937.64
541.28302 19184.52
542.28589 6689.78
548.35449 4059.39
549.34412 4282.2
550.34167 1405.42
551.34033 4253.34
552.33075 21841.97
553.34442 89941.71
554.3468 28316.41
555.34814 7922.18
567.35754 4115.92
568.34698 22300.29
569.3642 256289.86
570.36896 100424.45
571.37347 15239.71
583.36682 27144.85
584.37402 52459.64
585.37585 17354.17
586.35449 16220.2
587.35565 4004.31
593.34149 3812.45
594.34662 72896.18
595.34833 22440.88
596.33978 17061.64
597.34155 5231.11
610.36572 85927.01
611.3728 232729.8
612.3573 607118.88
613.36023 244457.3
614.36371 47194.51
615.37292 1700.31
628.37592 203139.45
629.37976 90791.8
630.38983 95521.8
631.39441 33933.77
632.39325 8341.36
638.35852 7231.69
639.36438 3786.27
641.37164 5400.33
642.37427 4276.95
653.44922 8830.86
654.45288 3268.1
664.42499 1647.13
665.41693 1346.55
668.39435 4308.38
670.44904 1358.29
680.43665 10987.3
681.43689 7981.52
682.44434 3985.96
683.41974 8864.82
684.42084 4719.14
689.42047 3681.74
690.42377 1371.41
696.45227 24852.54
697.45856 597910.88
698.46179 280988.03
699.46558 68916.58
700.44 2059.21
705.43445 1320
706.44598 21476.9
707.44739 7954.9
709.42053 3599.51
710.43048 3664.14
723.46619 1533.66
724.47668 4314.9
725.44037 133061.92
726.4444 59206.73
727.448 12541.27
741.46039 54153.77
742.46649 119836.01
743.4693 39867.63
744.46954 10198.58
752.44629 1581.09
752.49585 798.32
752.51514 1682.07
753.52484 2045.45
754.45679 8643.24
755.45898 4369.37
756.46204 1517.05
767.44727 7654.16
768.4599 4008.09
769.46167 2109.05
777.50763 1711.15
778.51202 5712.59
779.44971 7064.88
780.46106 5329.38
781.47589 15261.78
782.48145 9669.86
783.47626 7715.42
784.4679 2186.17
785.54498 3461.17
793.52332 1992.3
794.52258 3347.05
795.46887 7126.9
796.50122 98409.51
797.50439 57395.84
798.50977 18461.8
799.49066 1620.13
800.49304 5734.86
801.49249 1578.2
810.55121 5914.39
811.54071 5263.79
812.52118 25940.23
813.52667 49441
814.53088 24110.91
815.53351 4177.39
821.52087 5330.08
822.50616 44234.3
823.51178 22974.91
824.51874 6616.54
827.55145 4486.77
828.56305 3985.87
838.52496 153599.2
839.53143 376032.47
840.5343 202919.11
841.53796 50240.25
854.54388 39890.14
855.55011 143785.84
856.55707 271606.66
857.56146 146152.97
858.56305 38837.55
END IONS
